File: Figure1_XRD/040.xy
# == pyFAI calibration ==
# Distance Sample to Detector: 0.115075 m
# PONI: 5.477e-03, 4.716e-03 m
# Rotations: 0.004686 0.005536 0.000000 rad
#
# == Fit2d calibration ==
# Distance Sample-beamCenter: 115.078 mm
# Center: x=55.690, y=81.516 pix
# Tilt: 0.416 deg  TiltPlanRot: 130.247 deg
#
# Detector Detector	 Spline= None	 PixelSize= 7.500e-05, 7.500e-05 m
#    Detector has a mask: False
#    Detector has a dark current: False
#    detector has a flat field: False
#
# Wavelength: 4.833e-11 m
# Mask applied: None
# Dark current applied: None
# Flat field applied: None
# Polarization factor: None
# Normalization factor: None
#
# 2th_deg	 I
1.13121  36.5196
1.24914  82.0201
1.36706  103.994
1.48499  113.223
1.60291  118.384
1.72084  126.418
1.83877  131.841
1.95669  133.692
2.07462  139.622
2.19255  144.48
2.31047  145.927
2.4284  148.486
2.54633  148.187
2.66425  148.342
2.78218  147.332
2.9001  146.018
3.01803  143.293
3.13596  143.134
3.25388  143.609
3.37181  143.023
3.48974  141.206
3.60766  135.484
3.72559  144.344
3.84352  141.546
3.96144  136.209
4.07937  133.769
4.19729  130.542
4.31522  128.984
4.43315  126.741
4.55107  125.261
4.669  124.808
4.78693  123.569
4.90485  121.94
5.02278  120.169
5.14071  119.116
5.25863  118.617
5.37656  118.665
5.49448  117.276
5.61241  118.229
5.73034  117.028
5.84826  115.853
5.96619  117.707
6.08412  117.524
6.20204  116.403
6.31997  117.397
6.43789  117.056
6.55582  118.841
6.67375  118.17
6.79167  118.626
6.9096  118.996
7.02753  118.947
7.14545  118.716
7.26338  118.832
7.38131  120.154
7.49923  121.094
7.61716  122.813
7.73508  124.533
7.85301  133.932
7.97094  132.314
8.08886  131.913
8.20679  142.816
8.32472  164.232
8.44264  138.968
8.56057  136.034
8.6785  136.46
8.79642  139.168
8.91435  144.457
9.03227  147.246
9.1502  149.201
9.26813  153.372
9.38605  157.013
9.50398  162.993
9.62191  208.344
9.73983  166.451
9.85776  171.954
9.97568  182.229
10.0936  160.184
10.2115  152.481
10.3295  153.488
10.4474  150.651
10.5653  149.014
10.6832  149.969
10.8012  149.801
10.9191  152.434
11.037  153.08
11.1549  152.675
11.2729  151.748
11.3908  153.567
11.5087  156.728
11.6267  170.914
11.7446  185.602
11.8625  160.853
11.9804  159.452
12.0984  160.487
12.2163  162.013
12.3342  165.478
12.4521  169.368
12.5701  168.279
12.688  165.17
12.8059  164.717
12.9238  164.055
13.0418  167.189
13.1597  179.776
13.2776  201.099
13.3955  174.989
13.5135  171.583
13.6314  176.169
13.7493  172.797
13.8673  169.736
13.9852  178.33
14.1031  201.051
14.221  174.795
14.339  166.686
14.4569  164.582
14.5748  170.739
14.6927  170.497
14.8107  168.467
14.9286  164.383
15.0465  162.254
15.1644  162.996
15.2824  162.061
15.4003  162.892
15.5182  162.974
15.6361  164.29
15.7541  163.667
15.872  163.627
15.9899  163.983
16.1079  165.666
16.2258  166.931
16.3437  171.056
16.4616  170.502
16.5796  170.053
16.6975  170.788
16.8154  170.886
16.9333  168.538
17.0513  171.023
17.1692  174.643
17.2871  176.575
17.405  172.576
17.523  171.338
17.6409  170.96
17.7588  168.966
17.8767  169.148
17.9947  167.536
18.1126  166.952
18.2305  167.132
18.3485  166.799
18.4664  166.37
18.5843  167.117
18.7022  166.027
18.8202  167.389
18.9381  167.267
19.056  166.386
19.1739  167.746
19.2919  167.703
19.4098  168.832
19.5277  165.701
19.6456  164.149
19.7636  165.393
19.8815  166.913
19.9994  167.391
20.1173  169.33
20.2353  177.854
20.3532  179.579
20.4711  168.83
20.5891  167.773
20.707  168.624
20.8249  167.301
20.9428  169.262
21.0608  168.154
21.1787  168.027
21.2966  167.007
21.4145  168.225
21.5325  172.139
21.6504  177.101
21.7683  172.188
21.8862  170.8
22.0042  171.112
22.1221  173.937
22.24  177.451
22.358  183.878
22.4759  178.291
22.5938  174.462
22.7117  173.041
22.8297  172.504
22.9476  171.301
23.0655  171.944
23.1834  169.617
23.3014  170.822
23.4193  171.676
23.5372  174.129
23.6551  173.43
23.7731  175.051
23.891  176.491
24.0089  175.982
24.1268  175.955
24.2448  181.488
24.3627  183.723
24.4806  183.838
24.5986  178.951
24.7165  175.307
24.8344  175.668
24.9523  172.139
25.0703  172.243
25.1882  170.8
25.3061  169.384
25.424  169.089
25.542  168.477
25.6599  168.565
25.7778  167.5
25.8957  166.729
26.0137  167.362
26.1316  167.348
26.2495  168.049
26.3674  165.85
26.4854  166.759
26.6033  166.344
26.7212  165.557
26.8392  165.561
26.9571  165.44
27.075  165.187
27.1929  163.549
27.3109  164.015
27.4288  164.237
27.5467  163.158
27.6646  163.027
27.7826  163.35
27.9005  163.755
28.0184  163.547
28.1363  162.881
28.2543  164.662
28.3722  164.915
28.4901  163.062
28.608  161.552
28.726  161.78
28.8439  161.127
28.9618  160.714
29.0798  161.077
29.1977  160.915
29.3156  160.88
29.4335  161.654
29.5515  160.226
29.6694  160.041
29.7873  159.048
29.9052  156.778
30.0232  151.843
30.1411  145.449
30.259  132.547
30.3769  122.294
30.4949  115.888
30.6128  108.883
30.7307  102.146
30.8486  95.0043
30.9666  87.7707
31.0845  80.1236
31.2024  73.4772
31.3204  66.6783
31.4383  61.1589
31.5562  56.2985
31.6741  53.6504
31.7921  50.6294
31.91  50.1614
32.0279  46.1911
32.0869  48.8724