File: Figure1_XRD/045.xy
# == pyFAI calibration ==
# Distance Sample to Detector: 0.115075 m
# PONI: 5.477e-03, 4.716e-03 m
# Rotations: 0.004686 0.005536 0.000000 rad
#
# == Fit2d calibration ==
# Distance Sample-beamCenter: 115.078 mm
# Center: x=55.690, y=81.516 pix
# Tilt: 0.416 deg  TiltPlanRot: 130.247 deg
#
# Detector Detector	 Spline= None	 PixelSize= 7.500e-05, 7.500e-05 m
#    Detector has a mask: False
#    Detector has a dark current: False
#    detector has a flat field: False
#
# Wavelength: 4.833e-11 m
# Mask applied: None
# Dark current applied: None
# Flat field applied: None
# Polarization factor: None
# Normalization factor: None
#
# 2th_deg	 I
1.13121  35.7238
1.24914  79.5642
1.36706  102.535
1.48499  110.936
1.60291  119.4
1.72084  125.018
1.83877  129.259
1.95669  133.402
2.07462  140.792
2.19255  143.338
2.31047  144.94
2.4284  149.002
2.54633  149.728
2.66425  148.263
2.78218  146.37
2.9001  146.22
3.01803  144.317
3.13596  143.509
3.25388  143.786
3.37181  143.683
3.48974  140.519
3.60766  136.852
3.72559  138.152
3.84352  138.013
3.96144  137.634
4.07937  134.418
4.19729  133.01
4.31522  129.362
4.43315  126.879
4.55107  125.54
4.669  124.643
4.78693  124.937
4.90485  121.856
5.02278  120.567
5.14071  119.963
5.25863  118.23
5.37656  117.617
5.49448  118.219
5.61241  118.063
5.73034  119.544
5.84826  116.287
5.96619  116.777
6.08412  117.121
6.20204  117.196
6.31997  117.446
6.43789  118.719
6.55582  118.862
6.67375  118.604
6.79167  119.093
6.9096  118.209
7.02753  119.325
7.14545  119.718
7.26338  120.747
7.38131  120.657
7.49923  121.452
7.61716  122.097
7.73508  123.512
7.85301  125.424
7.97094  130.304
8.08886  138.271
8.20679  139.121
8.32472  161.475
8.44264  157.553
8.56057  140.684
8.6785  137.513
8.79642  138.927
8.91435  144.186
9.03227  146.662
9.1502  147.77
9.26813  152.237
9.38605  155.086
9.50398  157.231
9.62191  162.993
9.73983  197.742
9.85776  174.328
9.97568  182.715
10.0936  175.662
10.2115  157.265
10.3295  156.768
10.4474  151.657
10.5653  148.83
10.6832  147.896
10.8012  147.827
10.9191  148.952
11.037  151.627
11.1549  153.154
11.2729  150.405
11.3908  151.992
11.5087  154.674
11.6267  168.266
11.7446  193.56
11.8625  160.123
11.9804  159.272
12.0984  161.071
12.2163  163.332
12.3342  164.624
12.4521  169.72
12.5701  175.465
12.688  173.672
12.8059  172.357
12.9238  170.41
13.0418  172.795
13.1597  185.444
13.2776  212.801
13.3955  182.26
13.5135  171.587
13.6314  179.5
13.7493  174.297
13.8673  172.731
13.9852  176.982
14.1031  186.608
14.221  206.578
14.339  178.411
14.4569  169.011
14.5748  168.139
14.6927  172.725
14.8107  169.836
14.9286  167.564
15.0465  167.683
15.1644  166.494
15.2824  163.439
15.4003  163.792
15.5182  163.847
15.6361  164.75
15.7541  164.117
15.872  164.264
15.9899  165.039
16.1079  165.986
16.2258  167.074
16.3437  167.956
16.4616  175.474
16.5796  172.111
16.6975  168.811
16.8154  168.77
16.9333  169.255
17.0513  172.588
17.1692  175.482
17.2871  174.805
17.405  178.995
17.523  173.428
17.6409  171.12
17.7588  170.931
17.8767  171.425
17.9947  170.068
18.1126  168.966
18.2305  167.493
18.3485  168.377
18.4664  167.627
18.5843  166.755
18.7022  166.809
18.8202  165.741
18.9381  167.257
19.056  167.072
19.1739  166.959
19.2919  165.759
19.4098  168.749
19.5277  170.68
19.6456  168.838
19.7636  166.09
19.8815  166.76
19.9994  167.778
20.1173  170.327
20.2353  179.372
20.3532  183.755
20.4711  170.05
20.5891  167.817
20.707  167.448
20.8249  168.616
20.9428  169.175
21.0608  168.153
21.1787  168.8
21.2966  169.674
21.4145  170.046
21.5325  172.174
21.6504  172.634
21.7683  176.975
21.8862  174.815
22.0042  172.499
22.1221  172.663
22.24  174.779
22.358  179.903
22.4759  185.293
22.5938  180.746
22.7117  177.216
22.8297  173.288
22.9476  174.386
23.0655  174.187
23.1834  171.932
23.3014  172.2
23.4193  173.082
23.5372  174.186
23.6551  174.005
23.7731  175.401
23.891  178.351
24.0089  177.032
24.1268  176.714
24.2448  181.36
24.3627  182.495
24.4806  178.145
24.5986  180.37
24.7165  182.918
24.8344  177.24
24.9523  177.786
25.0703  174.967
25.1882  173.82
25.3061  172.387
25.424  170.599
25.542  169.698
25.6599  169.379
25.7778  169.255
25.8957  167.92
26.0137  167.966
26.1316  167.995
26.2495  168.631
26.3674  167.146
26.4854  167.358
26.6033  167.648
26.7212  166.684
26.8392  167.61
26.9571  166.653
27.075  165.799
27.1929  165.792
27.3109  165.229
27.4288  164.232
27.5467  164.701
27.6646  163.981
27.7826  164.066
27.9005  163.124
28.0184  163.881
28.1363  164.153
28.2543  163.704
28.3722  163.827
28.4901  164.929
28.608  165.391
28.726  165.155
28.8439  163.476
28.9618  162.332
29.0798  162.577
29.1977  160.668
29.3156  159.937
29.4335  161.341
29.5515  161.828
29.6694  159.868
29.7873  158.409
29.9052  157.119
30.0232  152.057
30.1411  144.69
30.259  133.454
30.3769  122.779
30.4949  115.883
30.6128  108.784
30.7307  102.194
30.8486  94.9105
30.9666  87.5841
31.0845  79.6328
31.2024  73.1271
31.3204  66.0496
31.4383  58.14
31.5562  51.8079
31.6741  46.7739
31.7921  40.4912
31.91  36.1008
32.0279  21.5559
32.0869  25.0139