File: Figure1_XRD/047.xy
# == pyFAI calibration ==
# Distance Sample to Detector: 0.115075 m
# PONI: 5.477e-03, 4.716e-03 m
# Rotations: 0.004686 0.005536 0.000000 rad
#
# == Fit2d calibration ==
# Distance Sample-beamCenter: 115.078 mm
# Center: x=55.690, y=81.516 pix
# Tilt: 0.416 deg  TiltPlanRot: 130.247 deg
#
# Detector Detector	 Spline= None	 PixelSize= 7.500e-05, 7.500e-05 m
#    Detector has a mask: False
#    Detector has a dark current: False
#    detector has a flat field: False
#
# Wavelength: 4.833e-11 m
# Mask applied: None
# Dark current applied: None
# Flat field applied: None
# Polarization factor: None
# Normalization factor: None
#
# 2th_deg	 I
1.13121  35.5462
1.24914  81.3173
1.36706  104.12
1.48499  115.48
1.60291  122.072
1.72084  128.41
1.83877  132.25
1.95669  136.487
2.07462  142.005
2.19255  146.951
2.31047  150.073
2.4284  151.276
2.54633  152.195
2.66425  151.121
2.78218  150.516
2.9001  148.488
3.01803  147.823
3.13596  146.323
3.25388  146.287
3.37181  146.477
3.48974  145.223
3.60766  146.277
3.72559  141.417
3.84352  145.237
3.96144  141.008
4.07937  137.578
4.19729  135.536
4.31522  132.386
4.43315  130.481
4.55107  128.693
4.669  128.205
4.78693  126.427
4.90485  125.638
5.02278  124.234
5.14071  123.914
5.25863  121.276
5.37656  120.712
5.49448  120.462
5.61241  119.65
5.73034  120.559
5.84826  119.041
5.96619  119.448
6.08412  120.242
6.20204  120.065
6.31997  120.29
6.43789  120.971
6.55582  121.987
6.67375  120.798
6.79167  122.497
6.9096  122.077
7.02753  122.256
7.14545  122.389
7.26338  123.142
7.38131  122.886
7.49923  124.663
7.61716  124.885
7.73508  126.169
7.85301  127.441
7.97094  131.66
8.08886  140.836
8.20679  142.613
8.32472  160.061
8.44264  169.017
8.56057  148.254
8.6785  141.409
8.79642  142.315
8.91435  146.773
9.03227  149.402
9.1502  152.467
9.26813  153.341
9.38605  158.654
9.50398  160.653
9.62191  165.733
9.73983  184.243
9.85776  195.441
9.97568  182.982
10.0936  187.563
10.2115  163.597
10.3295  163.468
10.4474  156.382
10.5653  152.746
10.6832  151.035
10.8012  151.84
10.9191  152.738
11.037  155.041
11.1549  155.251
11.2729  154.315
11.3908  153.998
11.5087  156.256
11.6267  170.377
11.7446  192.105
11.8625  162.531
11.9804  162.366
12.0984  161.88
12.2163  165.43
12.3342  169.075
12.4521  173.357
12.5701  178.968
12.688  179.521
12.8059  178.668
12.9238  178.243
13.0418  179.441
13.1597  190.553
13.2776  219.522
13.3955  189.751
13.5135  177.622
13.6314  184.758
13.7493  180.932
13.8673  176.603
13.9852  179.267
14.1031  189.389
14.221  219.445
14.339  191.179
14.4569  175.869
14.5748  173.035
14.6927  176.939
14.8107  175.966
14.9286  171.133
15.0465  171.765
15.1644  173.044
15.2824  169.443
15.4003  168.547
15.5182  167.952
15.6361  169.551
15.7541  168.444
15.872  168.473
15.9899  168.774
16.1079  169.814
16.2258  170.725
16.3437  171.746
16.4616  177.461
16.5796  179.531
16.6975  172.922
16.8154  172.989
16.9333  172.626
17.0513  174.915
17.1692  179.76
17.2871  179.26
17.405  183.685
17.523  178.834
17.6409  175.415
17.7588  175.062
17.8767  175.581
17.9947  174.543
18.1126  173.405
18.2305  171.886
18.3485  171.545
18.4664  171.984
18.5843  170.682
18.7022  170.866
18.8202  170.542
18.9381  169.804
19.056  170.468
19.1739  171.981
19.2919  169.049
19.4098  171.244
19.5277  172.839
19.6456  174.133
19.7636  171.72
19.8815  171.354
19.9994  171.919
20.1173  175.864
20.2353  183.784
20.3532  189.482
20.4711  173.86
20.5891  170.879
20.707  171.472
20.8249  172.025
20.9428  173.116
21.0608  172.218
21.1787  172.695
21.2966  173.274
21.4145  173.862
21.5325  176.01
21.6504  176.834
21.7683  179.26
21.8862  182.568
22.0042  177.299
22.1221  175.784
22.24  177.439
22.358  181.888
22.4759  187.857
22.5938  190.331
22.7117  184.568
22.8297  179.728
22.9476  177.46
23.0655  179.387
23.1834  178.425
23.3014  176.486
23.4193  176.582
23.5372  177.836
23.6551  177.379
23.7731  178.438
23.891  182.491
24.0089  180.996
24.1268  179.91
24.2448  184.873
24.3627  188.534
24.4806  182.097
24.5986  180.904
24.7165  187.299
24.8344  184.895
24.9523  181.523
25.0703  181.112
25.1882  177.783
25.3061  177.044
25.424  175.213
25.542  174.356
25.6599  173.746
25.7778  172.697
25.8957  171.751
26.0137  172.893
26.1316  173.179
26.2495  171.648
26.3674  171.867
26.4854  170.871
26.6033  171.296
26.7212  170.81
26.8392  170.275
26.9571  169.215
27.075  169.66
27.1929  169.085
27.3109  169.95
27.4288  169.426
27.5467  168.84
27.6646  167.925
27.7826  167.998
27.9005  167.068
28.0184  167.841
28.1363  166.314
28.2543  166.995
28.3722  167.525
28.4901  166.669
28.608  168.318
28.726  169.717
28.8439  167.073
28.9618  167.596
29.0798  164.735
29.1977  164.207
29.3156  164.953
29.4335  163.657
29.5515  163.41
29.6694  163.348
29.7873  162.201
29.9052  162.008
30.0232  155.295
30.1411  148.818
30.259  135.94
30.3769  124.757
30.4949  118.893
30.6128  111.239
30.7307  103.078
30.8486  96.2131
30.9666  88.2031
31.0845  80.6945
31.2024  74.0875
31.3204  67.4234
31.4383  58.7658
31.5562  52.4371
31.6741  46.8473
31.7921  41.0537
31.91  32.5449
32.0279  27.7147
32.0869  21.404