File: Figure1_XRD/050.xy
# == pyFAI calibration ==
# Distance Sample to Detector: 0.115075 m
# PONI: 5.477e-03, 4.716e-03 m
# Rotations: 0.004686 0.005536 0.000000 rad
#
# == Fit2d calibration ==
# Distance Sample-beamCenter: 115.078 mm
# Center: x=55.690, y=81.516 pix
# Tilt: 0.416 deg  TiltPlanRot: 130.247 deg
#
# Detector Detector	 Spline= None	 PixelSize= 7.500e-05, 7.500e-05 m
#    Detector has a mask: False
#    Detector has a dark current: False
#    detector has a flat field: False
#
# Wavelength: 4.833e-11 m
# Mask applied: None
# Dark current applied: None
# Flat field applied: None
# Polarization factor: None
# Normalization factor: None
#
# 2th_deg	 I
1.13121  34.1585
1.24914  84.9085
1.36706  110.546
1.48499  121.107
1.60291  128.695
1.72084  133.262
1.83877  138.445
1.95669  143.345
2.07462  150.159
2.19255  154.108
2.31047  156.995
2.4284  157.88
2.54633  158.289
2.66425  156.889
2.78218  157.813
2.9001  156.496
3.01803  153.524
3.13596  153.516
3.25388  152.932
3.37181  153.349
3.48974  151.555
3.60766  153.577
3.72559  147.391
3.84352  151.497
3.96144  147.648
4.07937  144.186
4.19729  140.853
4.31522  138.03
4.43315  136.336
4.55107  134.69
4.669  134.006
4.78693  132.41
4.90485  130.788
5.02278  129.583
5.14071  129.176
5.25863  126.261
5.37656  126.673
5.49448  125.873
5.61241  126.272
5.73034  126.593
5.84826  124.724
5.96619  125.585
6.08412  125.025
6.20204  126.146
6.31997  124.348
6.43789  125.861
6.55582  126.656
6.67375  126.532
6.79167  127.726
6.9096  127.737
7.02753  127.143
7.14545  128.29
7.26338  128.77
7.38131  129.611
7.49923  129.915
7.61716  131.25
7.73508  132.448
7.85301  133.424
7.97094  136.384
8.08886  142.856
8.20679  151.128
8.32472  163.416
8.44264  183.668
8.56057  158.418
8.6785  147.805
8.79642  148.926
8.91435  152.984
9.03227  157.271
9.1502  159.051
9.26813  161.744
9.38605  165.084
9.50398  167.402
9.62191  170.627
9.73983  182.18
9.85776  215.97
9.97568  189.143
10.0936  201.603
10.2115  174.534
10.3295  170.48
10.4474  161.709
10.5653  157.519
10.6832  156.179
10.8012  155.767
10.9191  156.705
11.037  157.321
11.1549  158.883
11.2729  157.484
11.3908  156.447
11.5087  158.595
11.6267  171.293
11.7446  195.192
11.8625  160.54
11.9804  159.327
12.0984  159.013
12.2163  161.891
12.3342  163.179
12.4521  166.759
12.5701  171.51
12.688  172.513
12.8059  172.043
12.9238  171.948
13.0418  173.654
13.1597  186.119
13.2776  218.663
13.3955  187.376
13.5135  174.43
13.6314  180.121
13.7493  179.402
13.8673  175.353
13.9852  177.755
14.1031  188.147
14.221  221.621
14.339  204.114
14.4569  180.845
14.5748  176.398
14.6927  178.896
14.8107  181.225
14.9286  176.218
15.0465  174.583
15.1644  175.65
15.2824  174.542
15.4003  172.276
15.5182  173.026
15.6361  173.898
15.7541  172
15.872  172.899
15.9899  174.336
16.1079  175.007
16.2258  176.55
16.3437  178.209
16.4616  182.209
16.5796  186.924
16.6975  179.934
16.8154  178.27
16.9333  178.563
17.0513  180.733
17.1692  183.645
17.2871  186.732
17.405  188.655
17.523  187.413
17.6409  182.311
17.7588  182.019
17.8767  181.505
17.9947  182.476
18.1126  181.059
18.2305  179.901
18.3485  178.557
18.4664  178.752
18.5843  176.876
18.7022  176.651
18.8202  177.128
18.9381  176.844
19.056  176.696
19.1739  177.88
19.2919  177.229
19.4098  176.439
19.5277  179.549
19.6456  179.901
19.7636  179.938
19.8815  177.405
19.9994  178.884
20.1173  181.892
20.2353  189.675
20.3532  196.743
20.4711  181.258
20.5891  177.481
20.707  177.385
20.8249  177.335
20.9428  179.517
21.0608  179.567
21.1787  177.094
21.2966  177.582
21.4145  177.536
21.5325  179.882
21.6504  180.997
21.7683  184.651
21.8862  189.091
22.0042  184.118
22.1221  181.578
22.24  182.891
22.358  186.546
22.4759  190.761
22.5938  197.485
22.7117  190.795
22.8297  185.403
22.9476  184.085
23.0655  184.22
23.1834  184.479
23.3014  183.558
23.4193  184.388
23.5372  184.221
23.6551  184.07
23.7731  184.713
23.891  189.98
24.0089  188.984
24.1268  188.409
24.2448  194.162
24.3627  198.363
24.4806  193.509
24.5986  192.112
24.7165  194.377
24.8344  195.869
24.9523  190.556
25.0703  190.974
25.1882  189.253
25.3061  187.523
25.424  187.958
25.542  187.679
25.6599  185.684
25.7778  185.587
25.8957  183.524
26.0137  182.521
26.1316  181.475
26.2495  181.766
26.3674  181.302
26.4854  180.046
26.6033  180.106
26.7212  179.606
26.8392  178.88
26.9571  178.667
27.075  178.589
27.1929  177.838
27.3109  178.015
27.4288  177.13
27.5467  175.583
27.6646  176.603
27.7826  175.047
27.9005  174.762
28.0184  173.885
28.1363  174.272
28.2543  174.221
28.3722  174.339
28.4901  174.029
28.608  175.194
28.726  176.426
28.8439  174.439
28.9618  174.957
29.0798  172.645
29.1977  171.443
29.3156  171.666
29.4335  171.525
29.5515  170.052
29.6694  169.124
29.7873  167.687
29.9052  166.679
30.0232  161.2
30.1411  152.985
30.259  141.866
30.3769  128.877
30.4949  122.56
30.6128  115.313
30.7307  108.434
30.8486  98.9498
30.9666  91.4162
31.0845  84.2511
31.2024  76.1043
31.3204  68.5302
31.4383  61.19
31.5562  54.1264
31.6741  47.8855
31.7921  42.0707
31.91  32.8044
32.0279  27.7147
32.0869  15.2782