File: Figure1_XRD/056.xy
# == pyFAI calibration ==
# Distance Sample to Detector: 0.115075 m
# PONI: 5.477e-03, 4.716e-03 m
# Rotations: 0.004686 0.005536 0.000000 rad
#
# == Fit2d calibration ==
# Distance Sample-beamCenter: 115.078 mm
# Center: x=55.690, y=81.516 pix
# Tilt: 0.416 deg  TiltPlanRot: 130.247 deg
#
# Detector Detector	 Spline= None	 PixelSize= 7.500e-05, 7.500e-05 m
#    Detector has a mask: False
#    Detector has a dark current: False
#    detector has a flat field: False
#
# Wavelength: 4.833e-11 m
# Mask applied: None
# Dark current applied: None
# Flat field applied: None
# Polarization factor: None
# Normalization factor: None
#
# 2th_deg	 I
1.13121  64.9558
1.24914  142.907
1.36706  185.078
1.48499  202.561
1.60291  214.603
1.72084  228.945
1.83877  234.597
1.95669  242.935
2.07462  253.942
2.19255  259.896
2.31047  266.448
2.4284  271.519
2.54633  269.968
2.66425  269.659
2.78218  268.1
2.9001  265.693
3.01803  262.166
3.13596  261.427
3.25388  261.887
3.37181  261.573
3.48974  259.569
3.60766  256.799
3.72559  252.165
3.84352  261.65
3.96144  253.656
4.07937  247.416
4.19729  241.034
4.31522  238.349
4.43315  232.194
4.55107  229.023
4.669  227.462
4.78693  227.869
4.90485  223.942
5.02278  221.76
5.14071  221.163
5.25863  218.896
5.37656  216.25
5.49448  217.04
5.61241  215.936
5.73034  217.5
5.84826  214.848
5.96619  215.867
6.08412  215.786
6.20204  214.721
6.31997  214.832
6.43789  215.718
6.55582  217.625
6.67375  216.875
6.79167  218.314
6.9096  219.991
7.02753  220.068
7.14545  220.534
7.26338  221.971
7.38131  221.965
7.49923  224.501
7.61716  225.951
7.73508  226.863
7.85301  228.705
7.97094  230.783
8.08886  237.883
8.20679  248.193
8.32472  272.832
8.44264  318.292
8.56057  278.748
8.6785  252.464
8.79642  257.495
8.91435  263.804
9.03227  269.397
9.1502  271.339
9.26813  277.148
9.38605  280.081
9.50398  287.288
9.62191  290.325
9.73983  296.792
9.85776  317.407
9.97568  361.759
10.0936  335.186
10.2115  323.01
10.3295  289.922
10.4474  286.129
10.5653  274.246
10.6832  269.445
10.8012  267.848
10.9191  266.608
11.037  269.263
11.1549  271.87
11.2729  271.686
11.3908  270.957
11.5087  270.839
11.6267  294.404
11.7446  332.293
11.8625  274.479
11.9804  269.055
12.0984  268.713
12.2163  271.944
12.3342  274.664
12.4521  279.137
12.5701  287.518
12.688  292.251
12.8059  292.657
12.9238  292.498
13.0418  294.541
13.1597  312.227
13.2776  364.397
13.3955  327.924
13.5135  304.289
13.6314  304.109
13.7493  316.351
13.8673  304.23
13.9852  301.387
14.1031  307.387
14.221  327.114
14.339  392.25
14.4569  341.209
14.5748  314.329
14.6927  306.225
14.8107  309.234
14.9286  316.632
15.0465  302.099
15.1644  301.735
15.2824  302.539
15.4003  304.038
15.5182  301.714
15.6361  300.749
15.7541  299.305
15.872  298.983
15.9899  300.947
16.1079  301.375
16.2258  302.759
16.3437  307.394
16.4616  309.954
16.5796  312.964
16.6975  326.241
16.8154  310.22
16.9333  306.965
17.0513  309.7
17.1692  311.841
17.2871  314.29
17.405  318.161
17.523  328.884
17.6409  327.054
17.7588  315.29
17.8767  312.138
17.9947  314.217
18.1126  313.798
18.2305  313.113
18.3485  310.915
18.4664  307.553
18.5843  306.558
18.7022  304.584
18.8202  306.2
18.9381  304.983
19.056  306.544
19.1739  305.605
19.2919  305.988
19.4098  305.954
19.5277  305.376
19.6456  308.543
19.7636  310.825
19.8815  311.423
19.9994  311.534
20.1173  312.188
20.2353  326.079
20.3532  346.426
20.4711  317.47
20.5891  305.48
20.707  304.345
20.8249  304.077
20.9428  306.011
21.0608  309.362
21.1787  310.25
21.2966  307.709
21.4145  306.692
21.5325  306.866
21.6504  306.499
21.7683  311.035
21.8862  315.51
22.0042  325.404
22.1221  321.867
22.24  313.641
22.358  316.891
22.4759  317.655
22.5938  328.244
22.7117  344.735
22.8297  340.257
22.9476  323.797
23.0655  319.735
23.1834  320.785
23.3014  321.586
23.4193  319.835
23.5372  321.493
23.6551  316.962
23.7731  318.133
23.891  324.642
24.0089  325.787
24.1268  323.427
24.2448  328.885
24.3627  334.868
24.4806  327.819
24.5986  325.262
24.7165  327.106
24.8344  333.168
24.9523  341.004
25.0703  332.174
25.1882  331.313
25.3061  328.802
25.424  321.47
25.542  321.071
25.6599  320.229
25.7778  320.41
25.8957  322.098
26.0137  322.281
26.1316  327.45
26.2495  322.589
26.3674  318.501
26.4854  317.379
26.6033  316.199
26.7212  314.132
26.8392  313.819
26.9571  308.934
27.075  309.26
27.1929  308.673
27.3109  308.359
27.4288  307.86
27.5467  308.153
27.6646  307.194
27.7826  305.282
27.9005  303.755
28.0184  301.799
28.1363  302.284
28.2543  301.518
28.3722  301.302
28.4901  300.114
28.608  300.353
28.726  301.271
28.8439  303.786
28.9618  305.797
29.0798  300.741
29.1977  299.773
29.3156  299.244
29.4335  297.725
29.5515  296.585
29.6694  293.345
29.7873  291.775
29.9052  286.359
30.0232  278.444
30.1411  266.273
30.259  245.529
30.3769  223.823
30.4949  213.545
30.6128  199.976
30.7307  188.733
30.8486  175.385
30.9666  161.334
31.0845  149.243
31.2024  135.73
31.3204  123.353
31.4383  109.61
31.5562  98.3414
31.6741  87.2306
31.7921  75.5393
31.91  61.8323
32.0279  43.1117
32.0869  42.4297