File: Figure1_XRD/068.xy
# == pyFAI calibration ==
# Distance Sample to Detector: 0.115075 m
# PONI: 5.477e-03, 4.716e-03 m
# Rotations: 0.004686 0.005536 0.000000 rad
#
# == Fit2d calibration ==
# Distance Sample-beamCenter: 115.078 mm
# Center: x=55.690, y=81.516 pix
# Tilt: 0.416 deg  TiltPlanRot: 130.247 deg
#
# Detector Detector	 Spline= None	 PixelSize= 7.500e-05, 7.500e-05 m
#    Detector has a mask: False
#    Detector has a dark current: False
#    detector has a flat field: False
#
# Wavelength: 4.833e-11 m
# Mask applied: None
# Dark current applied: None
# Flat field applied: None
# Polarization factor: None
# Normalization factor: None
#
# 2th_deg	 I
1.13121  67.9082
1.24914  147.717
1.36706  188.529
1.48499  208.47
1.60291  224.027
1.72084  236.338
1.83877  243.46
1.95669  252.24
2.07462  264.087
2.19255  273.829
2.31047  277.339
2.4284  283.866
2.54633  282.549
2.66425  281.533
2.78218  280.056
2.9001  276.512
3.01803  275.086
3.13596  274.569
3.25388  273.399
3.37181  273.126
3.48974  269.86
3.60766  269.083
3.72559  265.408
3.84352  274.833
3.96144  267.204
4.07937  259.441
4.19729  255.216
4.31522  250.813
4.43315  246.205
4.55107  243.134
4.669  240.682
4.78693  239.507
4.90485  236.749
5.02278  235.752
5.14071  233.828
5.25863  231.454
5.37656  230.774
5.49448  229.264
5.61241  228.787
5.73034  229.99
5.84826  228.142
5.96619  228.504
6.08412  227.983
6.20204  227.926
6.31997  228.512
6.43789  228.686
6.55582  231.257
6.67375  230.459
6.79167  230.918
6.9096  232.431
7.02753  233.96
7.14545  234.888
7.26338  234.568
7.38131  236.223
7.49923  238.001
7.61716  239.389
7.73508  240.322
7.85301  240.94
7.97094  243.482
8.08886  248.038
8.20679  253.672
8.32472  274.345
8.44264  311.494
8.56057  358.105
8.6785  285.365
8.79642  275.999
8.91435  276.951
9.03227  283.871
9.1502  285.841
9.26813  292.34
9.38605  296.113
9.50398  300.72
9.62191  304.444
9.73983  304.003
9.85776  308.531
9.97568  329.541
10.0936  418.197
10.2115  368.936
10.3295  332.506
10.4474  319.906
10.5653  297.08
10.6832  285.914
10.8012  283.045
10.9191  282.357
11.037  281.234
11.1549  282.692
11.2729  285.792
11.3908  290.976
11.5087  289.32
11.6267  315.657
11.7446  369.938
11.8625  294.323
11.9804  284.239
12.0984  283.989
12.2163  285.887
12.3342  285.905
12.4521  290.591
12.5701  295.356
12.688  298.893
12.8059  305.448
12.9238  303.579
13.0418  304.304
13.1597  321.008
13.2776  397.797
13.3955  351.347
13.5135  316.067
13.6314  317.676
13.7493  330.888
13.8673  337.923
13.9852  324.093
14.1031  319.958
14.221  324.97
14.339  336.696
14.4569  405.194
14.5748  370.653
14.6927  351.624
14.8107  334.209
14.9286  332.037
15.0465  343.901
15.1644  325.576
15.2824  321.962
15.4003  321.511
15.5182  322.558
15.6361  326.142
15.7541  320.596
15.872  319.112
15.9899  319.404
16.1079  319.895
16.2258  321.058
16.3437  326.589
16.4616  326.808
16.5796  326.109
16.6975  331.498
16.8154  346.134
16.9333  329.328
17.0513  325.66
17.1692  327.092
17.2871  329.541
17.405  328.71
17.523  330.998
17.6409  339.84
17.7588  351.547
17.8767  343.196
17.9947  333.493
18.1126  331.064
18.2305  330.444
18.3485  334.015
18.4664  335.813
18.5843  327.7
18.7022  324.73
18.8202  324.509
18.9381  324.271
19.056  324.127
19.1739  323.501
19.2919  323.615
19.4098  324.216
19.5277  323.045
19.6456  323.675
19.7636  326.502
19.8815  329.527
19.9994  329.505
20.1173  334.261
20.2353  353.188
20.3532  378.18
20.4711  343.168
20.5891  328.09
20.707  326.725
20.8249  323.372
20.9428  323.006
21.0608  324.088
21.1787  327.22
21.2966  328.739
21.4145  328.773
21.5325  327.506
21.6504  325.057
21.7683  326.687
21.8862  327.352
22.0042  332.927
22.1221  337.584
22.24  349.338
22.358  340.973
22.4759  339.359
22.5938  337.844
22.7117  341.576
22.8297  349.699
22.9476  374.854
23.0655  358.296
23.1834  348.804
23.3014  344.379
23.4193  346.395
23.5372  348.259
23.6551  341.152
23.7731  338.425
23.891  341.803
24.0089  348.07
24.1268  341.308
24.2448  347.521
24.3627  359.774
24.4806  348.662
24.5986  335.619
24.7165  334.496
24.8344  337.633
24.9523  342.654
25.0703  353.578
25.1882  363.924
25.3061  354.859
25.424  352.318
25.542  346.057
25.6599  340.736
25.7778  339.085
25.8957  335.281
26.0137  337.158
26.1316  336.231
26.2495  334.968
26.3674  335.68
26.4854  339.033
26.6033  346.088
26.7212  333.838
26.8392  332.798
26.9571  331.561
27.075  337.349
27.1929  333.505
27.3109  331.174
27.4288  330.487
27.5467  328.212
27.6646  328.587
27.7826  329.168
27.9005  327.367
28.0184  326.474
28.1363  323.962
28.2543  323.344
28.3722  321.322
28.4901  320.223
28.608  320.281
28.726  320.331
28.8439  319.236
28.9618  320.14
29.0798  322.758
29.1977  324.8
29.3156  320.744
29.4335  319.725
29.5515  316.081
29.6694  315.314
29.7873  311.732
29.9052  303.484
30.0232  293.523
30.1411  279.269
30.259  256.353
30.3769  238.155
30.4949  226.262
30.6128  213.878
30.7307  200.364
30.8486  184.252
30.9666  170.784
31.0845  158.333
31.2024  144.694
31.3204  129.643
31.4383  116.773
31.5562  104.715
31.6741  90.1393
31.7921  82.6506
31.91  74.1802
32.0279  61.5882
32.0869  40.7935