File: Figure1_XRD/071.xy
# == pyFAI calibration ==
# Distance Sample to Detector: 0.115075 m
# PONI: 5.477e-03, 4.716e-03 m
# Rotations: 0.004686 0.005536 0.000000 rad
#
# == Fit2d calibration ==
# Distance Sample-beamCenter: 115.078 mm
# Center: x=55.690, y=81.516 pix
# Tilt: 0.416 deg  TiltPlanRot: 130.247 deg
#
# Detector Detector	 Spline= None	 PixelSize= 7.500e-05, 7.500e-05 m
#    Detector has a mask: False
#    Detector has a dark current: False
#    detector has a flat field: False
#
# Wavelength: 4.833e-11 m
# Mask applied: None
# Dark current applied: None
# Flat field applied: None
# Polarization factor: None
# Normalization factor: None
#
# 2th_deg	 I
1.13121  58.7487
1.24914  151.986
1.36706  194.485
1.48499  216.69
1.60291  228.126
1.72084  242.67
1.83877  249.361
1.95669  259.927
2.07462  272.958
2.19255  281.491
2.31047  287.666
2.4284  291.772
2.54633  291.064
2.66425  289.84
2.78218  288.02
2.9001  286.528
3.01803  283.409
3.13596  280.271
3.25388  280.694
3.37181  280.55
3.48974  279.237
3.60766  275.832
3.72559  270.559
3.84352  280.018
3.96144  275.622
4.07937  266.997
4.19729  261.942
4.31522  257.33
4.43315  252.686
4.55107  249.605
4.669  248.704
4.78693  245.269
4.90485  244.279
5.02278  241.861
5.14071  240.411
5.25863  237.97
5.37656  235.795
5.49448  235.732
5.61241  235.022
5.73034  237.639
5.84826  235.994
5.96619  233.897
6.08412  233.934
6.20204  233.136
6.31997  234.481
6.43789  235.243
6.55582  237.321
6.67375  236.622
6.79167  238.498
6.9096  238.202
7.02753  239.7
7.14545  240.855
7.26338  241.382
7.38131  241.488
7.49923  244.436
7.61716  245.475
7.73508  247.144
7.85301  249.149
7.97094  252.134
8.08886  255.849
8.20679  261.485
8.32472  281.409
8.44264  319.738
8.56057  372.823
8.6785  295.358
8.79642  285.182
8.91435  283.166
9.03227  292.277
9.1502  295.42
9.26813  302.62
9.38605  306.207
9.50398  311.53
9.62191  313.35
9.73983  312.671
9.85776  315.128
9.97568  336.256
10.0936  448.912
10.2115  383.423
10.3295  349.575
10.4474  326.208
10.5653  302.478
10.6832  294.368
10.8012  290.601
10.9191  288.322
11.037  288.281
11.1549  291.396
11.2729  293.179
11.3908  299.149
11.5087  299.505
11.6267  326.38
11.7446  385.864
11.8625  303.698
11.9804  292.601
12.0984  292.354
12.2163  293.708
12.3342  293.529
12.4521  299.343
12.5701  302.543
12.688  307.194
12.8059  312.858
12.9238  309.652
13.0418  312.621
13.1597  331.178
13.2776  426.123
13.3955  378.407
13.5135  321.396
13.6314  325.07
13.7493  341.22
13.8673  352.032
13.9852  333.851
14.1031  329.035
14.221  333.648
14.339  344.669
14.4569  416.931
14.5748  388.347
14.6927  365.266
14.8107  347.667
14.9286  342.169
15.0465  359.245
15.1644  336.863
15.2824  329.819
15.4003  332.004
15.5182  332.337
15.6361  333.942
15.7541  332.076
15.872  327.513
15.9899  328.026
16.1079  328.955
16.2258  331.6
16.3437  337.913
16.4616  337.627
16.5796  335.731
16.6975  342.206
16.8154  357.304
16.9333  341.409
17.0513  335.538
17.1692  335.602
17.2871  338.792
17.405  335.664
17.523  339.652
17.6409  345.641
17.7588  361.776
17.8767  356.739
17.9947  343.981
18.1126  338.845
18.2305  341.618
18.3485  343.541
18.4664  344.291
18.5843  336.544
18.7022  334.291
18.8202  332.277
18.9381  332.482
19.056  331.775
19.1739  332.312
19.2919  332.313
19.4098  332.572
19.5277  332.784
19.6456  331.568
19.7636  333.737
19.8815  336.873
19.9994  338.666
20.1173  343.389
20.2353  364.63
20.3532  390.381
20.4711  353.523
20.5891  337.897
20.707  335.582
20.8249  333.963
20.9428  332.539
21.0608  331.844
21.1787  335.141
21.2966  336.179
21.4145  336.109
21.5325  335.99
21.6504  333.661
21.7683  335.261
21.8862  337.13
22.0042  340.621
22.1221  348.321
22.24  365.07
22.358  355.174
22.4759  349.562
22.5938  348.923
22.7117  349.714
22.8297  357.075
22.9476  381.887
23.0655  372.759
23.1834  359.817
23.3014  355.088
23.4193  357.676
23.5372  360.099
23.6551  352.372
23.7731  347.808
23.891  353.969
24.0089  360.569
24.1268  353.779
24.2448  356.322
24.3627  372.565
24.4806  358.804
24.5986  346.925
24.7165  343.929
24.8344  343.992
24.9523  350.954
25.0703  363.114
25.1882  378.652
25.3061  367.325
25.424  360.825
25.542  357.481
25.6599  349.728
25.7778  349.232
25.8957  344.467
26.0137  344.484
26.1316  345.936
26.2495  343.855
26.3674  343.239
26.4854  345.76
26.6033  349.549
26.7212  342.089
26.8392  342.916
26.9571  340.61
27.075  346.816
27.1929  343.763
27.3109  340.261
27.4288  339.546
27.5467  335.578
27.6646  337.778
27.7826  338.969
27.9005  338.086
28.0184  336.166
28.1363  333.833
28.2543  331.401
28.3722  329.495
28.4901  329.223
28.608  327.578
28.726  328.581
28.8439  327.862
28.9618  329.676
29.0798  328.715
29.1977  336.373
29.3156  331.457
29.4335  328.238
29.5515  328.959
29.6694  324.323
29.7873  319.208
29.9052  311.619
30.0232  299.601
30.1411  284.039
30.259  259.877
30.3769  242.927
30.4949  231.769
30.6128  217.934
30.7307  203.726
30.8486  188.131
30.9666  173.656
31.0845  159.245
31.2024  144.958
31.3204  131.162
31.4383  117.984
31.5562  105.692
31.6741  92.2834
31.7921  80.5178
31.91  64.4161
32.0279  47.7308
32.0869  50.8665