File: Figure1_XRD/073.xy
# == pyFAI calibration ==
# Distance Sample to Detector: 0.115075 m
# PONI: 5.477e-03, 4.716e-03 m
# Rotations: 0.004686 0.005536 0.000000 rad
#
# == Fit2d calibration ==
# Distance Sample-beamCenter: 115.078 mm
# Center: x=55.690, y=81.516 pix
# Tilt: 0.416 deg  TiltPlanRot: 130.247 deg
#
# Detector Detector	 Spline= None	 PixelSize= 7.500e-05, 7.500e-05 m
#    Detector has a mask: False
#    Detector has a dark current: False
#    detector has a flat field: False
#
# Wavelength: 4.833e-11 m
# Mask applied: None
# Dark current applied: None
# Flat field applied: None
# Polarization factor: None
# Normalization factor: None
#
# 2th_deg	 I
1.13121  54.5264
1.24914  150.03
1.36706  189.261
1.48499  213.808
1.60291  225.23
1.72084  239.774
1.83877  247.387
1.95669  256.42
2.07462  269.328
2.19255  278.684
2.31047  283.702
2.4284  287.668
2.54633  290.249
2.66425  287.427
2.78218  283.852
2.9001  284.477
3.01803  280.091
3.13596  280.403
3.25388  278.506
3.37181  278.089
3.48974  274.374
3.60766  272.902
3.72559  268.505
3.84352  278.922
3.96144  273.653
4.07937  264.522
4.19729  260.456
4.31522  256.263
4.43315  251.148
4.55107  247.922
4.669  245.12
4.78693  244.379
4.90485  242.199
5.02278  239.71
5.14071  237.803
5.25863  237.477
5.37656  233.516
5.49448  234.705
5.61241  235.746
5.73034  235.245
5.84826  234.184
5.96619  231.459
6.08412  231.952
6.20204  232.451
6.31997  232.718
6.43789  233.927
6.55582  235.45
6.67375  233.952
6.79167  235.626
6.9096  236.509
7.02753  237.527
7.14545  239.85
7.26338  239.717
7.38131  240.311
7.49923  241.155
7.61716  243.757
7.73508  244.326
7.85301  246.785
7.97094  249.125
8.08886  253.775
8.20679  258.57
8.32472  275.518
8.44264  310.045
8.56057  373.952
8.6785  299.436
8.79642  284.103
8.91435  281.945
9.03227  288.835
9.1502  291.822
9.26813  298.912
9.38605  302.633
9.50398  308.796
9.62191  312.196
9.73983  309.56
9.85776  311.874
9.97568  325.841
10.0936  442.334
10.2115  379.285
10.3295  351.063
10.4474  327.186
10.5653  301.305
10.6832  292.144
10.8012  287.775
10.9191  286.042
11.037  286.532
11.1549  286.305
11.2729  290.756
11.3908  296.724
11.5087  296.729
11.6267  323.217
11.7446  382.855
11.8625  300.244
11.9804  290.553
12.0984  290.17
12.2163  290.242
12.3342  292.481
12.4521  296.358
12.5701  300.03
12.688  303.415
12.8059  308.391
12.9238  307.069
13.0418  309.68
13.1597  326.755
13.2776  412.493
13.3955  390.691
13.5135  320.805
13.6314  322.875
13.7493  336.115
13.8673  352.033
13.9852  333.47
14.1031  327.181
14.221  329.401
14.339  337.07
14.4569  402.106
14.5748  392.638
14.6927  362.413
14.8107  348.035
14.9286  338.604
15.0465  354.254
15.1644  337.19
15.2824  328.744
15.4003  328.268
15.5182  328.954
15.6361  331.932
15.7541  330.003
15.872  325.967
15.9899  325.238
16.1079  326.297
16.2258  328.49
16.3437  333.984
16.4616  333.405
16.5796  332.713
16.6975  335.925
16.8154  351.897
16.9333  343.321
17.0513  333.466
17.1692  333.78
17.2871  336.497
17.405  332.818
17.523  334.814
17.6409  341.791
17.7588  355.253
17.8767  353.523
17.9947  342.564
18.1126  335.875
18.2305  337.915
18.3485  338.056
18.4664  342.574
18.5843  336.607
18.7022  332.352
18.8202  329.689
18.9381  331.076
19.056  328.623
19.1739  329.218
19.2919  329.531
19.4098  330.692
19.5277  329.838
19.6456  328.997
19.7636  330.603
19.8815  332.88
19.9994  337.179
20.1173  340.679
20.2353  360.169
20.3532  390.778
20.4711  351.411
20.5891  336.82
20.707  332.776
20.8249  330.217
20.9428  329.637
21.0608  329.117
21.1787  330.361
21.2966  331.873
21.4145  333.138
21.5325  333.305
21.6504  330.255
21.7683  329.495
21.8862  332.383
22.0042  338.34
22.1221  344.782
22.24  360.82
22.358  356.356
22.4759  345.537
22.5938  345.792
22.7117  346.855
22.8297  350.969
22.9476  374.072
23.0655  372.777
23.1834  360.966
23.3014  352.603
23.4193  354.434
23.5372  356.484
23.6551  350.196
23.7731  347.153
23.891  350.676
24.0089  356.291
24.1268  352.205
24.2448  354.918
24.3627  369.225
24.4806  356.205
24.5986  344.027
24.7165  340.796
24.8344  343.159
24.9523  345.967
25.0703  356.56
25.1882  372.58
25.3061  366.347
25.424  358.387
25.542  356.557
25.6599  349.09
25.7778  344.519
25.8957  342.318
26.0137  340.396
26.1316  340.421
26.2495  340.226
26.3674  340.138
26.4854  343.976
26.6033  343.957
26.7212  338.334
26.8392  336.693
26.9571  338.028
27.075  338.249
27.1929  343.803
27.3109  338.869
27.4288  336.324
27.5467  333.142
27.6646  334.863
27.7826  332.441
27.9005  336.586
28.0184  334.719
28.1363  333.128
28.2543  327.235
28.3722  326.854
28.4901  325.251
28.608  324.73
28.726  325.937
28.8439  325.979
28.9618  325.557
29.0798  324.459
29.1977  330.945
29.3156  330.08
29.4335  326.214
29.5515  324.015
29.6694  322.166
29.7873  315.694
29.9052  308.745
30.0232  296.177
30.1411  282.744
30.259  255.642
30.3769  240.269
30.4949  229.473
30.6128  216.864
30.7307  200.673
30.8486  187.347
30.9666  171.926
31.0845  158.324
31.2024  144.812
31.3204  130.447
31.4383  116.877
31.5562  103.275
31.6741  91.7201
31.7921  79.8685
31.91  69.7842
32.0279  55.4294
32.0869  40.7524