File: Figure1_XRD/085.xy
# == pyFAI calibration ==
# Distance Sample to Detector: 0.115075 m
# PONI: 5.477e-03, 4.716e-03 m
# Rotations: 0.004686 0.005536 0.000000 rad
#
# == Fit2d calibration ==
# Distance Sample-beamCenter: 115.078 mm
# Center: x=55.690, y=81.516 pix
# Tilt: 0.416 deg  TiltPlanRot: 130.247 deg
#
# Detector Detector	 Spline= None	 PixelSize= 7.500e-05, 7.500e-05 m
#    Detector has a mask: False
#    Detector has a dark current: False
#    detector has a flat field: False
#
# Wavelength: 4.833e-11 m
# Mask applied: None
# Dark current applied: None
# Flat field applied: None
# Polarization factor: None
# Normalization factor: None
#
# 2th_deg	 I
1.13121  73.2381
1.24914  143.579
1.36706  179.913
1.48499  200.376
1.60291  214.697
1.72084  224.671
1.83877  234.018
1.95669  241.018
2.07462  254.131
2.19255  264.379
2.31047  267.337
2.4284  272.801
2.54633  273.266
2.66425  272.762
2.78218  269.011
2.9001  268.305
3.01803  264.66
3.13596  262.986
3.25388  262.566
3.37181  263.442
3.48974  259.207
3.60766  256.622
3.72559  254.223
3.84352  262.238
3.96144  258.482
4.07937  252.637
4.19729  244.171
4.31522  242.035
4.43315  238.244
4.55107  234.643
4.669  231.77
4.78693  231.011
4.90485  228.54
5.02278  227.103
5.14071  227.4
5.25863  223.886
5.37656  222.137
5.49448  220.725
5.61241  220.065
5.73034  220.88
5.84826  223.119
5.96619  220.413
6.08412  219.475
6.20204  220.196
6.31997  220.586
6.43789  221.773
6.55582  222.61
6.67375  222.961
6.79167  222.528
6.9096  224.073
7.02753  224.216
7.14545  227.041
7.26338  227.227
7.38131  227.406
7.49923  229.867
7.61716  230.692
7.73508  230.585
7.85301  233.392
7.97094  236.366
8.08886  238.874
8.20679  242.744
8.32472  250.838
8.44264  272.515
8.56057  335.965
8.6785  318.638
8.79642  281.389
8.91435  268.314
9.03227  272.445
9.1502  274.23
9.26813  283.233
9.38605  286.902
9.50398  292.077
9.62191  292.076
9.73983  292.46
9.85776  291.917
9.97568  288.691
10.0936  326.402
10.2115  417.77
10.3295  360.365
10.4474  347.813
10.5653  298.752
10.6832  281.439
10.8012  276.506
10.9191  272.906
11.037  272.482
11.1549  272.476
11.2729  274.623
11.3908  280.049
11.5087  285.063
11.6267  308.72
11.7446  370.358
11.8625  290.956
11.9804  276.048
12.0984  274.696
12.2163  275.336
12.3342  276.564
12.4521  278.938
12.5701  282.116
12.688  283.706
12.8059  288.44
12.9238  295.903
13.0418  301.945
13.1597  310.529
13.2776  375.894
13.3955  368.405
13.5135  302.53
13.6314  299.81
13.7493  311.088
13.8673  328.484
13.9852  329.453
14.1031  317.094
14.221  312.278
14.339  318.782
14.4569  332.572
14.5748  390.677
14.6927  358.939
14.8107  337.684
14.9286  333.722
15.0465  328.271
15.1644  334
15.2824  316.587
15.4003  311.866
15.5182  310.844
15.6361  313.151
15.7541  310.855
15.872  312.844
15.9899  311.176
16.1079  310.826
16.2258  311.752
16.3437  316.063
16.4616  315.742
16.5796  315.362
16.6975  314.922
16.8154  319.453
16.9333  331.268
17.0513  321.561
17.1692  316.696
17.2871  318.576
17.405  316.27
17.523  315.184
17.6409  317.535
17.7588  323.036
17.8767  334.559
17.9947  333.385
18.1126  328.906
18.2305  321.264
18.3485  319.242
18.4664  320.682
18.5843  324.061
18.7022  318.111
18.8202  315.599
18.9381  312.614
19.056  311.296
19.1739  313.162
19.2919  311.143
19.4098  310.796
19.5277  312.791
19.6456  312.656
19.7636  311.422
19.8815  313.656
19.9994  315.426
20.1173  322.693
20.2353  337.158
20.3532  374.045
20.4711  344.579
20.5891  320.949
20.707  318.826
20.8249  315.104
20.9428  314.408
21.0608  312.325
21.1787  311.36
21.2966  313.719
21.4145  315.618
21.5325  318.68
21.6504  316.334
21.7683  315.11
21.8862  315.887
22.0042  317.077
22.1221  318.747
22.24  325.656
22.358  338.923
22.4759  337.297
22.5938  324.769
22.7117  325.042
22.8297  327.381
22.9476  332.517
23.0655  352.353
23.1834  364.107
23.3014  341.366
23.4193  338.426
23.5372  340.837
23.6551  336.584
23.7731  333.655
23.891  331.93
24.0089  338.304
24.1268  335.166
24.2448  334.306
24.3627  346.82
24.4806  340.573
24.5986  327.615
24.7165  322.732
24.8344  321.535
24.9523  322.711
25.0703  324.889
25.1882  333.576
25.3061  346.628
25.424  348.193
25.542  340.769
25.6599  337.271
25.7778  329.804
25.8957  326.741
26.0137  325.606
26.1316  323.149
26.2495  323.558
26.3674  320.713
26.4854  321.809
26.6033  321.704
26.7212  323.077
26.8392  323.704
26.9571  322.782
27.075  329.361
27.1929  313.244
27.3109  316.639
27.4288  323.474
27.5467  321.502
27.6646  319.884
27.7826  316.93
27.9005  316.937
28.0184  317.011
28.1363  316.224
28.2543  315.756
28.3722  313.265
28.4901  310.403
28.608  309.668
28.726  308.787
28.8439  309.315
28.9618  309.791
29.0798  308.663
29.1977  308.575
29.3156  310.914
29.4335  314.526
29.5515  308.183
29.6694  306.71
29.7873  303.238
29.9052  294.488
30.0232  283.575
30.1411  266.593
30.259  244.18
30.3769  230.257
30.4949  217.768
30.6128  205.782
30.7307  191.498
30.8486  177.585
30.9666  164.829
31.0845  149.529
31.2024  138.195
31.3204  124.709
31.4383  111.97
31.5562  100.519
31.6741  86.7834
31.7921  78.1121
31.91  64.8866
32.0279  49.2705
32.0869  46.0396