File: Figure1_XRD/091.xy
# == pyFAI calibration ==
# Distance Sample to Detector: 0.115075 m
# PONI: 5.477e-03, 4.716e-03 m
# Rotations: 0.004686 0.005536 0.000000 rad
#
# == Fit2d calibration ==
# Distance Sample-beamCenter: 115.078 mm
# Center: x=55.690, y=81.516 pix
# Tilt: 0.416 deg  TiltPlanRot: 130.247 deg
#
# Detector Detector	 Spline= None	 PixelSize= 7.500e-05, 7.500e-05 m
#    Detector has a mask: False
#    Detector has a dark current: False
#    detector has a flat field: False
#
# Wavelength: 4.833e-11 m
# Mask applied: None
# Dark current applied: None
# Flat field applied: None
# Polarization factor: None
# Normalization factor: None
#
# 2th_deg	 I
1.13121  57.4683
1.24914  139.07
1.36706  178.833
1.48499  203.808
1.60291  216.641
1.72084  229.431
1.83877  235.86
1.95669  244.081
2.07462  257.384
2.19255  263.909
2.31047  270.076
2.4284  274.67
2.54633  275.686
2.66425  274.328
2.78218  271.815
2.9001  271.528
3.01803  267.897
3.13596  267.17
3.25388  265.37
3.37181  264.521
3.48974  262.935
3.60766  260.931
3.72559  255.117
3.84352  264.508
3.96144  267.776
4.07937  256.012
4.19729  249.338
4.31522  245.773
4.43315  242.146
4.55107  238.416
4.669  236.755
4.78693  234.539
4.90485  233.181
5.02278  229.54
5.14071  230.579
5.25863  227.212
5.37656  225.832
5.49448  225.798
5.61241  225.168
5.73034  224.475
5.84826  226.684
5.96619  223.37
6.08412  223.319
6.20204  222.651
6.31997  223.367
6.43789  224.944
6.55582  226.001
6.67375  225.732
6.79167  226.105
6.9096  226.801
7.02753  228.825
7.14545  230.481
7.26338  230.209
7.38131  231.492
7.49923  233.699
7.61716  234.542
7.73508  235.426
7.85301  236.63
7.97094  240.507
8.08886  243.035
8.20679  245.863
8.32472  246.955
8.44264  260.039
8.56057  297.074
8.6785  364.422
8.79642  299.526
8.91435  277.111
9.03227  278.046
9.1502  277.859
9.26813  283.452
9.38605  290.072
9.50398  292.413
9.62191  295.799
9.73983  295.431
9.85776  294.578
9.97568  295.468
10.0936  299.121
10.2115  345.643
10.3295  424.296
10.4474  363.107
10.5653  315.529
10.6832  298.491
10.8012  285.957
10.9191  281.381
11.037  277.701
11.1549  277.81
11.2729  278.036
11.3908  281.798
11.5087  288.992
11.6267  316.167
11.7446  385.782
11.8625  303.501
11.9804  281.205
12.0984  280.221
12.2163  280.913
12.3342  280.739
12.4521  283.788
12.5701  286.328
12.688  287.923
12.8059  290.938
12.9238  295.327
13.0418  304.363
13.1597  321.47
13.2776  386.341
13.3955  391.36
13.5135  319.517
13.6314  318.133
13.7493  311.893
13.8673  323.765
13.9852  331.362
14.1031  315.369
14.221  325.782
14.339  320.81
14.4569  323.305
14.5748  343.848
14.6927  393.954
14.8107  359.666
14.9286  335.777
15.0465  334.93
15.1644  341.347
15.2824  337.834
15.4003  322.101
15.5182  317.372
15.6361  316.341
15.7541  316.173
15.872  317.284
15.9899  318.31
16.1079  319.119
16.2258  321.884
16.3437  321.386
16.4616  320.306
16.5796  319.537
16.6975  319.809
16.8154  320.973
16.9333  325.64
17.0513  333.253
17.1692  325.91
17.2871  322.817
17.405  323.631
17.523  320.437
17.6409  322.706
17.7588  322.084
17.8767  326.179
17.9947  335.122
18.1126  337.16
18.2305  333.469
18.3485  330.805
18.4664  326.888
18.5843  327.83
18.7022  328.248
18.8202  325.798
18.9381  320.739
19.056  317.055
19.1739  319.729
19.2919  318.184
19.4098  317.706
19.5277  317.122
19.6456  317.607
19.7636  318.073
19.8815  318.809
19.9994  319.056
20.1173  324.478
20.2353  341.392
20.3532  377.888
20.4711  355.712
20.5891  332.935
20.707  329.49
20.8249  324.656
20.9428  323.315
21.0608  319.995
21.1787  318.527
21.2966  318.864
21.4145  318.306
21.5325  319.887
21.6504  323.509
21.7683  324.07
21.8862  321.866
22.0042  322.723
22.1221  321.248
22.24  325.768
22.358  332.224
22.4759  338.823
22.5938  342.096
22.7117  334.563
22.8297  330.183
22.9476  330.604
23.0655  337.003
23.1834  342.414
23.3014  366.462
23.4193  358.629
23.5372  354.592
23.6551  343.326
23.7731  341.882
23.891  344.614
24.0089  348.057
24.1268  345.046
24.2448  341.329
24.3627  352.073
24.4806  351.958
24.5986  335.103
24.7165  329.183
24.8344  327.862
24.9523  326.781
25.0703  326.755
25.1882  328.708
25.3061  333.116
25.424  341.296
25.542  348.266
25.6599  349.784
25.7778  343.231
25.8957  336.776
26.0137  332.76
26.1316  329.565
26.2495  328.796
26.3674  332.055
26.4854  348.073
26.6033  331.05
26.7212  327.126
26.8392  328.419
26.9571  324.976
27.075  324.311
27.1929  323.518
27.3109  325.842
27.4288  329.237
27.5467  325.146
27.6646  354.229
27.7826  337.289
27.9005  329.132
28.0184  323.705
28.1363  320.865
28.2543  319.918
28.3722  320.589
28.4901  318.115
28.608  317.244
28.726  314.668
28.8439  313.437
28.9618  313.467
29.0798  312.546
29.1977  312.233
29.3156  312.069
29.4335  311.543
29.5515  315.425
29.6694  313.296
29.7873  307.951
29.9052  300.737
30.0232  287.446
30.1411  273.353
30.259  249.343
30.3769  232.611
30.4949  221.452
30.6128  208.861
30.7307  194.468
30.8486  180.97
30.9666  166.637
31.0845  153.05
31.2024  137.909
31.3204  126.069
31.4383  113.534
31.5562  99.2171
31.6741  89.1502
31.7921  78.7583
31.91  66.2889
32.0279  60.0485
32.0869  45.2625